twotheta,intensity
10.0001,1628
10.0206,1644
10.041,1656
10.0615,1571
10.082,1537
10.1024,1593
10.1229,1621
10.1433,1604
10.1638,1655
10.1843,1581
10.2047,1572
10.2252,1620
10.2457,1641
10.2661,1540
10.2866,1565
10.3071,1618
10.3275,1562
10.348,1666
10.3685,1494
10.3889,1597
10.4094,1580
10.4298,1565
10.4503,1523
10.4708,1594
10.4912,1575
10.5117,1603
10.5322,1591
10.5526,1619
10.5731,1585
10.5936,1598
10.614,1572
10.6345,1664
10.6549,1522
10.6754,1629
10.6959,1584
10.7163,1551
10.7368,1613
10.7573,1509
10.7777,1489
10.7982,1534
10.8187,1515
10.8391,1520
10.8596,1591
10.88,1565
10.9005,1614
10.921,1584
10.9414,1528
10.9619,1596
10.9824,1560
11.0028,1551
11.0233,1566
11.0438,1611
11.0642,1649
11.0847,1513
11.1052,1571
11.1256,1508
11.1461,1579
11.1665,1591
11.187,1509
11.2075,1525
11.2279,1510
11.2484,1547
11.2689,1493
11.2893,1507
11.3098,1459
11.3303,1525
11.3507,1539
11.3712,1554
11.3916,1514
11.4121,1502
11.4326,1577
11.453,1589
11.4735,1588
11.494,1552
11.5144,1585
11.5349,1494
11.5554,1515
11.5758,1529
11.5963,1566
11.6167,1540
11.6372,1460
11.6577,1545
11.6781,1514
11.6986,1493
11.7191,1590
11.7395,1625
11.76,1546
11.7805,1571
11.8009,1536
11.8214,1545
11.8419,1518
11.8623,1561
11.8828,1523
11.9032,1464
11.9237,1553
11.9442,1486
11.9646,1473
11.9851,1515
12.0056,1577
12.026,1528
12.0465,1553
12.067,1511
12.0874,1522
12.1079,1552
12.1283,1511
12.1488,1571
12.1693,1584
12.1897,1581
12.2102,1512
12.2307,1562
12.2511,1535
12.2716,1531
12.2921,1588
12.3125,1532
12.333,1509
12.3534,1547
12.3739,1567
12.3944,1560
12.4148,1572
12.4353,1513
12.4558,1527
12.4762,1535
12.4967,1464
12.5172,1551
12.5376,1569
12.5581,1504
12.5786,1529
12.599,1575
12.6195,1583
12.6399,1529
12.6604,1600
12.6809,1473
12.7013,1516
12.7218,1548
12.7423,1536
12.7627,1523
12.7832,1494
12.8037,1523
12.8241,1501
12.8446,1531
12.865,1583
12.8855,1443
12.906,1549
12.9264,1593
12.9469,1510
12.9674,1507
12.9878,1528
13.0083,1549
13.0288,1526
13.0492,1541
13.0697,1539
13.0901,1585
13.1106,1527
13.1311,1520
13.1515,1553
13.172,1605
13.1925,1498
13.2129,1477
13.2334,1568
13.2539,1580
13.2743,1521
13.2948,1483
13.3153,1511
13.3357,1519
13.3562,1586
13.3766,1593
13.3971,1567
13.4176,1556
13.438,1532
13.4585,1565
13.479,1554
13.4994,1575
13.5199,1578
13.5404,1534
13.5608,1539
13.5813,1495
13.6017,1533
13.6222,1619
13.6427,1518
13.6631,1581
13.6836,1495
13.7041,1526
13.7245,1576
13.745,1493
13.7655,1543
13.7859,1559
13.8064,1713
13.8268,1556
13.8473,1538
13.8678,1614
13.8882,1513
13.9087,1531
13.9292,1515
13.9496,1593
13.9701,1575
13.9906,1646
14.011,1625
14.0315,1560
14.052,1531
14.0724,1603
14.0929,1552
14.1133,1603
14.1338,1645
14.1543,1524
14.1747,1583
14.1952,1616
14.2157,1571
14.2361,1618
14.2566,1621
14.2771,1554
14.2975,1581
14.318,1594
14.3384,1639
14.3589,1595
14.3794,1618
14.3998,1583
14.4203,1636
14.4408,1550
14.4612,1638
14.4817,1613
14.5022,1575
14.5226,1545
14.5431,1602
14.5635,1681
14.584,1555
14.6045,1563
14.6249,1655
14.6454,1581
14.6659,1611
14.6863,1600
14.7068,1671
14.7273,1590
14.7477,1654
14.7682,1640
14.7887,1514
14.8091,1636
14.8296,1660
14.85,1711
14.8705,1692
14.891,1652
14.9114,1615
14.9319,1702
14.9524,1654
14.9728,1671
14.9933,1715
15.0138,1646
15.0342,1718
15.0547,1655
15.0751,1653
15.0956,1733
15.1161,1679
15.1365,1673
15.157,1746
15.1775,1679
15.1979,1715
15.2184,1650
15.2389,1730
15.2593,1695
15.2798,1783
15.3002,1747
15.3207,1653
15.3412,1728
15.3616,1708
15.3821,1726
15.4026,1675
15.423,1661
15.4435,1723
15.464,1750
15.4844,1718
15.5049,1684
15.5254,1723
15.5458,1675
15.5663,1663
15.5867,1778
15.6072,1742
15.6277,1807
15.6481,1683
15.6686,1777
15.6891,1748
15.7095,1711
15.73,1794
15.7505,1675
15.7709,1725
15.7914,1734
15.8118,1769
15.8323,1784
15.8528,1802
15.8732,1785
15.8937,1753
15.9142,1786
15.9346,1746
15.9551,1764
15.9756,1738
15.996,1756
16.0165,1877
16.0369,1794
16.0574,1840
16.0779,1815
16.0983,1799
16.1188,1790
16.1393,1806
16.1597,1777
16.1802,1779
16.2007,1818
16.2211,1846
16.2416,1825
16.2621,1845
16.2825,1788
16.303,1882
16.3234,1801
16.3439,1858
16.3644,1892
16.3848,1757
16.4053,1830
16.4258,1823
16.4462,1818
16.4667,1935
16.4872,1840
16.5076,1811
16.5281,1841
16.5485,1816
16.569,1924
16.5895,1849
16.6099,1888
16.6304,1886
16.6509,1852
16.6713,1819
16.6918,1874
16.7123,1913
16.7327,1833
16.7532,1874
16.7736,1955
16.7941,1991
16.8146,1956
16.835,1972
16.8555,1965
16.876,1907
16.8964,2017
16.9169,1880
16.9374,1968
16.9578,1988
16.9783,1878
16.9988,2018
17.0192,2000
17.0397,1972
17.0601,1987
17.0806,1984
17.1011,1992
17.1215,2021
17.142,1994
17.1625,2023
17.1829,1957
17.2034,2012
17.2239,2016
17.2443,1940
17.2648,2013
17.2852,2031
17.3057,2121
17.3262,1968
17.3466,2086
17.3671,2057
17.3876,2102
17.408,2106
17.4285,2051
17.449,2078
17.4694,2086
17.4899,2076
17.5103,2059
17.5308,2019
17.5513,2159
17.5717,2025
17.5922,2150
17.6127,2099
17.6331,2111
17.6536,2130
17.6741,2126
17.6945,2131
17.715,2117
17.7355,2213
17.7559,2106
17.7764,2084
17.7968,2170
17.8173,2084
17.8378,2131
17.8582,2141
17.8787,2166
17.8992,2122
17.9196,2239
17.9401,2181
17.9606,2179
17.981,2277
18.0015,2224
18.0219,2242
18.0424,2186
18.0629,2196
18.0833,2245
18.1038,2187
18.1243,2248
18.1447,2225
18.1652,2238
18.1857,2206
18.2061,2275
18.2266,2248
18.247,2221
18.2675,2261
18.288,2271
18.3084,2286
18.3289,2323
18.3494,2319
18.3698,2274
18.3903,2298
18.4108,2315
18.4312,2378
18.4517,2296
18.4722,2235
18.4926,2396
18.5131,2335
18.5335,2257
18.554,2300
18.5745,2338
18.5949,2358
18.6154,2301
18.6359,2371
18.6563,2346
18.6768,2328
18.6973,2362
18.7177,2443
18.7382,2394
18.7586,2397
18.7791,2485
18.7996,2422
18.82,2394
18.8405,2382
18.861,2338
18.8814,2472
18.9019,2501
18.9224,2495
18.9428,2390
18.9633,2473
18.9837,2422
19.0042,2455
19.0247,2394
19.0451,2527
19.0656,2462
19.0861,2453
19.1065,2548
19.127,2415
19.1475,2425
19.1679,2464
19.1884,2396
19.2089,2470
19.2293,2400
19.2498,2478
19.2702,2475
19.2907,2544
19.3112,2480
19.3316,2557
19.3521,2573
19.3726,2432
19.393,2476
19.4135,2542
19.434,2575
19.4544,2590
19.4749,2519
19.4953,2529
19.5158,2572
19.5363,2516
19.5567,2588
19.5772,2539
19.5977,2488
19.6181,2642
19.6386,2644
19.6591,2567
19.6795,2625
19.7,2583
19.7204,2530
19.7409,2704
19.7614,2719
19.7818,2704
19.8023,2664
19.8228,2626
19.8432,2640
19.8637,2606
19.8842,2581
19.9046,2716
19.9251,2705
19.9456,2661
19.966,2708
19.9865,2660
20.0069,2677
20.0274,2691
20.0479,2725
20.0683,2725
20.0888,2668
20.1093,2591
20.1297,2664
20.1502,2705
20.1707,2738
20.1911,2818
20.2116,2707
20.232,2721
20.2525,2713
20.273,2758
20.2934,2757
20.3139,2754
20.3344,2743
20.3548,2658
20.3753,2753
20.3958,2916
20.4162,2803
20.4367,2815
20.4571,2779
20.4776,2827
20.4981,2744
20.5185,2612
20.539,2759
20.5595,2725
20.5799,2750
20.6004,2752
20.6209,2753
20.6413,2826
20.6618,2817
20.6823,2903
20.7027,2842
20.7232,2894
20.7436,2815
20.7641,2821
20.7846,2882
20.805,2893
20.8255,2909
20.846,2835
20.8664,2908
20.8869,2868
20.9074,2913
20.9278,2871
20.9483,2856
20.9687,2887
20.9892,2837
21.0097,2904
21.0301,2900
21.0506,2971
21.0711,2851
21.0915,2863
21.112,2847
21.1325,2880
21.1529,2864
21.1734,2804
21.1938,2866
21.2143,2826
21.2348,2942
21.2552,2884
21.2757,2818
21.2962,2940
21.3166,2935
21.3371,2967
21.3576,2804
21.378,2997
21.3985,2888
21.419,2982
21.4394,2987
21.4599,2934
21.4803,2867
21.5008,2926
21.5213,2926
21.5417,2955
21.5622,2953
21.5827,2939
21.6031,2955
21.6236,2917
21.6441,2879
21.6645,2876
21.685,2923
21.7054,2941
21.7259,2952
21.7464,3007
21.7668,2909
21.7873,2993
21.8078,2885
21.8282,2873
21.8487,2954
21.8692,2924
21.8896,2981
21.9101,3040
21.9305,2945
21.951,3012
21.9715,2980
21.9919,2852
22.0124,2969
22.0329,3091
22.0533,2868
22.0738,2945
22.0943,2969
22.1147,2925
22.1352,2997
22.1557,2921
22.1761,2926
22.1966,3025
22.217,2973
22.2375,2906
22.258,2940
22.2784,2941
22.2989,2863
22.3194,2935
22.3398,2980
22.3603,2946
22.3808,2904
22.4012,2872
22.4217,2857
22.4421,2991
22.4626,3006
22.4831,2927
22.5035,2927
22.524,2900
22.5445,2834
22.5649,2858
22.5854,2941
22.6059,2924
22.6263,2895
22.6468,2838
22.6672,2919
22.6877,2931
22.7082,2948
22.7286,2840
22.7491,2827
22.7696,2892
22.79,2812
22.8105,2914
22.831,2809
22.8514,2878
22.8719,2893
22.8924,2910
22.9128,2867
22.9333,2909
22.9537,2948
22.9742,2881
22.9947,2835
23.0151,2885
23.0356,2724
23.0561,2933
23.0765,2855
23.097,2872
23.1175,2921
23.1379,2848
23.1584,2912
23.1788,2810
23.1993,2919
23.2198,2836
23.2402,2803
23.2607,2801
23.2812,2818
23.3016,2794
23.3221,2815
23.3426,2796
23.363,2850
23.3835,2820
23.4039,2853
23.4244,2837
23.4449,2848
23.4653,2869
23.4858,2809
23.5063,2884
23.5267,2874
23.5472,2824
23.5677,2837
23.5881,2908
23.6086,2764
23.6291,2837
23.6495,2770
23.67,2743
23.6904,2642
23.7109,2776
23.7314,2864
23.7518,2807
23.7723,2907
23.7928,2772
23.8132,2757
23.8337,2781
23.8542,2766
23.8746,2777
23.8951,2745
23.9155,2708
23.936,2773
23.9565,2751
23.9769,2717
23.9974,2699
24.0179,2729
24.0383,2690
24.0588,2757
24.0793,2799
24.0997,2720
24.1202,2714
24.1407,2688
24.1611,2618
24.1816,2763
24.202,2670
24.2225,2645
24.243,2705
24.2634,2791
24.2839,2642
24.3044,2583
24.3248,2811
24.3453,2706
24.3658,2704
24.3862,2696
24.4067,2739
24.4271,2622
24.4476,2644
24.4681,2622
24.4885,2692
24.509,2641
24.5295,2602
24.5499,2633
24.5704,2609
24.5909,2498
24.6113,2648
24.6318,2590
24.6522,2633
24.6727,2615
24.6932,2660
24.7136,2692
24.7341,2628
24.7546,2611
24.775,2618
24.7955,2623
24.816,2579
24.8364,2589
24.8569,2589
24.8774,2616
24.8978,2582
24.9183,2589
24.9387,2647
24.9592,2632
24.9797,2626
25.0001,2568
25.0206,2436
25.0411,2535
25.0615,2543
25.082,2626
25.1025,2457
25.1229,2582
25.1434,2517
25.1638,2507
25.1843,2494
25.2048,2505
25.2252,2452
25.2457,2500
25.2662,2521
25.2866,2566
25.3071,2455
25.3276,2470
25.348,2497
25.3685,2421
25.3889,2504
25.4094,2448
25.4299,2470
25.4503,2469
25.4708,2453
25.4913,2431
25.5117,2410
25.5322,2402
25.5527,2449
25.5731,2392
25.5936,2381
25.6141,2463
25.6345,2390
25.655,2449
25.6754,2424
25.6959,2426
25.7164,2469
25.7368,2368
25.7573,2423
25.7778,2403
25.7982,2404
25.8187,2376
25.8392,2370
25.8596,2392
25.8801,2335
25.9005,2369
25.921,2304
25.9415,2369
25.9619,2328
25.9824,2356
26.0029,2399
26.0233,2383
26.0438,2366
26.0643,2296
26.0847,2398
26.1052,2289
26.1256,2386
26.1461,2219
26.1666,2430
26.187,2397
26.2075,2403
26.228,2316
26.2484,2333
26.2689,2341
26.2894,2309
26.3098,2216
26.3303,2329
26.3508,2221
26.3712,2304
26.3917,2249
26.4121,2285
26.4326,2200
26.4531,2295
26.4735,2324
26.494,2286
26.5145,2271
26.5349,2285
26.5554,2278
26.5759,2248
26.5963,2236
26.6168,2246
26.6372,2190
26.6577,2226
26.6782,2242
26.6986,2195
26.7191,2267
26.7396,2215
26.76,2231
26.7805,2136
26.801,2258
26.8214,2199
26.8419,2167
26.8623,2162
26.8828,2134
26.9033,2123
26.9237,2138
26.9442,2219
26.9647,2120
26.9851,2116
27.0056,2164
27.0261,2210
27.0465,2110
27.067,2161
27.0875,2101
27.1079,2196
27.1284,2153
27.1488,2159
27.1693,2173
27.1898,2171
27.2102,2078
27.2307,2076
27.2512,2290
27.2716,2068
27.2921,2094
27.3126,2140
27.333,2073
27.3535,2086
27.3739,2044
27.3944,2055
27.4149,2097
27.4353,2035
27.4558,2085
27.4763,2107
27.4967,2037
27.5172,2091
27.5377,2069
27.5581,1998
27.5786,2156
27.599,1987
27.6195,1971
27.64,2081
27.6604,2088
27.6809,2048
27.7014,2040
27.7218,2070
27.7423,2062
27.7628,1967
27.7832,2110
27.8037,1996
27.8242,2037
27.8446,1991
27.8651,2024
27.8855,1959
27.906,1951
27.9265,2083
27.9469,1976
27.9674,2062
27.9879,1958
28.0083,1959
28.0288,1988
28.0493,1984
28.0697,1929
28.0902,1982
28.1106,2056
28.1311,1957
28.1516,1960
28.172,1933
28.1925,2024
28.213,1971
28.2334,1963
28.2539,1899
28.2744,1937
28.2948,2010
28.3153,1972
28.3357,1943
28.3562,1979
28.3767,1921
28.3971,1901
28.4176,1869
28.4381,1891
28.4585,1905
28.479,1922
28.4995,1925
28.5199,1855
28.5404,1934
28.5609,1969
28.5813,1932
28.6018,1836
28.6222,1923
28.6427,1803
28.6632,1902
28.6836,1879
28.7041,1924
28.7246,1852
28.745,1860
28.7655,1909
28.786,1915
28.8064,1882
28.8269,1879
28.8473,1840
28.8678,1830
28.8883,1811
28.9087,1838
28.9292,1941
28.9497,1914
28.9701,1883
28.9906,1829
29.0111,1931
29.0315,1904
29.052,1792
29.0724,1775
29.0929,1861
29.1134,1865
29.1338,1855
29.1543,1880
29.1748,1811
29.1952,1763
29.2157,1809
29.2362,1851
29.2566,1886
29.2771,1830
29.2976,1753
29.318,1840
29.3385,1814
29.3589,1836
29.3794,1804
29.3999,1857
29.4203,1841
29.4408,1810
29.4613,1797
29.4817,1771
29.5022,1799
29.5227,1723
29.5431,1773
29.5636,1774
29.584,1716
29.6045,1730
29.625,1687
29.6454,1744
29.6659,1805
29.6864,1795
29.7068,1673
29.7273,1717
29.7478,1753
29.7682,1732
29.7887,1737
29.8091,1751
29.8296,1789
29.8501,1675
29.8705,1724
29.891,1714
29.9115,1716
29.9319,1686
29.9524,1756
29.9729,1767
29.9933,1697
30.0138,1703
30.0343,1743
30.0547,1737
30.0752,1746
30.0956,1691
30.1161,1716
30.1366,1656
30.157,1692
30.1775,1667
30.198,1654
30.2184,1648
30.2389,1720
30.2594,1696
30.2798,1596
30.3003,1620
30.3207,1653
30.3412,1635
30.3617,1657
30.3821,1740
30.4026,1701
30.4231,1669
30.4435,1648
30.464,1650
30.4845,1609
30.5049,1652
30.5254,1649
30.5458,1661
30.5663,1704
30.5868,1690
30.6072,1606
30.6277,1674
30.6482,1601
30.6686,1636
30.6891,1663
30.7096,1653
30.73,1644
30.7505,1592
30.771,1610
30.7914,1631
30.8119,1713
30.8323,1558
30.8528,1585
30.8733,1578
30.8937,1590
30.9142,1600
30.9347,1626
30.9551,1577
30.9756,1626
30.9961,1536
31.0165,1569
31.037,1651
31.0574,1570
31.0779,1587
31.0984,1571
31.1188,1645
31.1393,1607
31.1598,1540
31.1802,1545
31.2007,1524
31.2212,1546
31.2416,1574
31.2621,1583
31.2825,1584
31.303,1634
31.3235,1581
31.3439,1547
31.3644,1562
31.3849,1567
31.4053,1618
31.4258,1635
31.4463,1580
31.4667,1519
31.4872,1590
31.5077,1640
31.5281,1535
31.5486,1559
31.569,1596
31.5895,1538
31.61,1606
31.6304,1535
31.6509,1528
31.6714,1538
31.6918,1517
31.7123,1558
31.7328,1553
31.7532,1548
31.7737,1507
31.7941,1556
31.8146,1565
31.8351,1460
31.8555,1581
31.876,1528
31.8965,1551
31.9169,1558
31.9374,1543
31.9579,1512
31.9783,1470
31.9988,1476
32.0192,1508
32.0397,1493
32.0602,1528
32.0806,1482
32.1011,1550
32.1216,1487
32.142,1568
32.1625,1474
32.183,1499
32.2034,1428
32.2239,1430
32.2444,1544
32.2648,1478
32.2853,1378
32.3057,1429
32.3262,1500
32.3467,1512
32.3671,1543
32.3876,1516
32.4081,1420
32.4285,1580
32.449,1485
32.4695,1488
32.4899,1441
32.5104,1524
32.5308,1473
32.5513,1481
32.5718,1471
32.5922,1424
32.6127,1470
32.6332,1448
32.6536,1538
32.6741,1397
32.6946,1462
32.715,1460
32.7355,1436
32.7559,1388
32.7764,1490
32.7969,1450
32.8173,1430
32.8378,1455
32.8583,1436
32.8787,1381
32.8992,1381
32.9197,1488
32.9401,1447
32.9606,1402
32.9811,1374
33.0015,1421
33.022,1382
33.0424,1388
33.0629,1403
33.0834,1402
33.1038,1373
33.1243,1465
33.1448,1415
33.1652,1435
33.1857,1398
33.2062,1356
33.2266,1392
33.2471,1361
33.2675,1378
33.288,1428
33.3085,1394
33.3289,1372
33.3494,1383
33.3699,1459
33.3903,1435
33.4108,1365
33.4313,1406
33.4517,1413
33.4722,1350
33.4926,1387
33.5131,1366
33.5336,1311
33.554,1329
33.5745,1316
33.595,1362
33.6154,1313
33.6359,1382
33.6564,1354
33.6768,1368
33.6973,1352
33.7178,1380
33.7382,1407
33.7587,1351
33.7791,1407
33.7996,1359
33.8201,1305
33.8405,1365
33.861,1386
33.8815,1348
33.9019,1403
33.9224,1381
33.9429,1387
33.9633,1355
33.9838,1379
34.0042,1390
34.0247,1369
34.0452,1273
34.0656,1331
34.0861,1375
34.1066,1316
34.127,1400
34.1475,1298
34.168,1326
34.1884,1327
34.2089,1333
34.2293,1320
34.2498,1330
34.2703,1308
34.2907,1349
34.3112,1346
34.3317,1352
34.3521,1341
34.3726,1304
34.3931,1372
34.4135,1300
34.434,1278
34.4545,1324
34.4749,1330
34.4954,1270
34.5158,1312
34.5363,1325
34.5568,1273
34.5772,1368
34.5977,1284
34.6182,1285
34.6386,1302
34.6591,1342
34.6796,1330
34.7,1214
34.7205,1286
34.7409,1296
34.7614,1225
34.7819,1239
34.8023,1334
34.8228,1301
34.8433,1258
34.8637,1344
34.8842,1275
34.9047,1306
34.9251,1243
34.9456,1221
34.966,1329
34.9865,1282
35.007,1261
35.0274,1235
35.0479,1254
35.0684,1275
35.0888,1254
35.1093,1289
35.1298,1297
35.1502,1285
35.1707,1290
35.1912,1278
35.2116,1240
35.2321,1218
35.2525,1331
35.273,1307
35.2935,1244
35.3139,1260
35.3344,1246
35.3549,1277
35.3753,1242
35.3958,1260
35.4163,1214
35.4367,1240
35.4572,1241
35.4776,1238
35.4981,1232
35.5186,1202
35.539,1281
35.5595,1265
35.58,1230
35.6004,1238
35.6209,1216
35.6414,1265
35.6618,1303
35.6823,1283
35.7027,1303
35.7232,1253
35.7437,1192
35.7641,1218
35.7846,1229
35.8051,1250
35.8255,1208
35.846,1246
35.8665,1276
35.8869,1248
35.9074,1212
35.9279,1295
35.9483,1255
35.9688,1177
35.9892,1119
36.0097,1161
36.0302,1209
36.0506,1205
36.0711,1274
36.0916,1258
36.112,1207
36.1325,1219
36.153,1260
36.1734,1280
36.1939,1169
36.2143,1215
36.2348,1254
36.2553,1275
36.2757,1253
36.2962,1241
36.3167,1198
36.3371,1185
36.3576,1218
36.3781,1261
36.3985,1205
36.419,1224
36.4394,1179
36.4599,1230
36.4804,1220
36.5008,1248
36.5213,1256
36.5418,1300
36.5622,1192
36.5827,1218
36.6032,1256
36.6236,1253
36.6441,1140
36.6646,1216
36.685,1274
36.7055,1282
36.7259,1295
36.7464,1287
36.7669,1251
36.7873,1276
36.8078,1301
36.8283,1394
36.8487,1261
36.8692,1389
36.8897,1409
36.9101,1349
36.9306,1481
36.951,1461
36.9715,1485
36.992,1503
37.0124,1635
37.0329,1727
37.0534,1694
37.0738,1782
37.0943,1810
37.1148,1840
37.1352,1905
37.1557,2031
37.1761,2004
37.1966,1971
37.2171,1891
37.2375,1849
37.258,1860
37.2785,1735
37.2989,1722
37.3194,1596
37.3399,1546
37.3603,1574
37.3808,1480
37.4013,1376
37.4217,1371
37.4422,1404
37.4626,1290
37.4831,1285
37.5036,1259
37.524,1267
37.5445,1214
37.565,1187
37.5854,1200
37.6059,1213
37.6264,1173
37.6468,1208
37.6673,1187
37.6877,1142
37.7082,1185
37.7287,1222
37.7491,1152
37.7696,1244
37.7901,1155
37.8105,1080
37.831,1152
37.8515,1186
37.8719,1125
37.8924,1141
37.9129,1088
37.9333,1137
37.9538,1099
37.9742,1171
37.9947,1134
38.0152,1101
38.0356,1106
38.0561,1154
38.0766,1117
38.097,1079
38.1175,1062
38.138,1159
38.1584,1095
38.1789,1109
38.1993,1108
38.2198,1078
38.2403,1124
38.2607,1079
38.2812,1092
38.3017,1032
38.3221,1101
38.3426,1109
38.3631,1028
38.3835,1078
38.404,1054
38.4244,1003
38.4449,1120
38.4654,1088
38.4858,1090
38.5063,1181
38.5268,1104
38.5472,1066
38.5677,1074
38.5882,1139
38.6086,1059
38.6291,1065
38.6496,1103
38.67,1048
38.6905,1075
38.7109,1060
38.7314,1064
38.7519,1070
38.7723,1097
38.7928,1058
38.8133,1065
38.8337,1042
38.8542,1081
38.8747,1060
38.8951,1046
38.9156,1060
38.936,1059
38.9565,1080
38.977,1057
38.9974,1091
39.0179,1036
39.0384,1064
39.0588,1045
39.0793,1018
39.0998,941
39.1202,1029
39.1407,1049
39.1611,1014
39.1816,996
39.2021,1010
39.2225,991
39.243,1019
39.2635,1087
39.2839,1017
39.3044,1072
39.3249,1036
39.3453,1079
39.3658,1028
39.3863,1021
39.4067,996
39.4272,1029
39.4476,1052
39.4681,1033
39.4886,958
39.509,1029
39.5295,1104
39.55,1047
39.5704,1010
39.5909,1003
39.6114,1021
39.6318,1006
39.6523,1059
39.6727,1036
39.6932,1046
39.7137,1030
39.7341,1026
39.7546,1024
39.7751,1027
39.7955,1008
39.816,983
39.8365,1056
39.8569,1011
39.8774,1002
39.8978,1073
39.9183,1022
39.9388,1011
39.9592,1054
39.9797,1056
40.0002,938
40.0206,1033
40.0411,1025
40.0616,1072
40.082,1029
40.1025,988
40.123,939
40.1434,1007
40.1639,1010
40.1843,1007
40.2048,1017
40.2253,961
40.2457,1095
40.2662,1010
40.2867,1037
40.3071,977
40.3276,991
40.3481,1014
40.3685,952
40.389,991
40.4094,1031
40.4299,1026
40.4504,1028
40.4708,1001
40.4913,1032
40.5118,1003
40.5322,1009
40.5527,981
40.5732,1055
40.5936,1023
40.6141,1015
40.6345,994
40.655,1030
40.6755,992
40.6959,1015
40.7164,975
40.7369,1036
40.7573,985
40.7778,1036
40.7983,1047
40.8187,989
40.8392,989
40.8597,1011
40.8801,1061
40.9006,1004
40.921,1053
40.9415,1031
40.962,1065
40.9824,954
41.0029,1017
41.0234,1012
41.0438,1015
41.0643,1017
41.0848,1036
41.1052,950
41.1257,938
41.1461,1009
41.1666,1002
41.1871,974
41.2075,1032
41.228,993
41.2485,1019
41.2689,1050
41.2894,931
41.3099,957
41.3303,1018
41.3508,1011
41.3712,1009
41.3917,1009
41.4122,993
41.4326,973
41.4531,1020
41.4736,1069
41.494,1023
41.5145,982
41.535,1039
41.5554,998
41.5759,1012
41.5964,1020
41.6168,969
41.6373,1033
41.6577,960
41.6782,1017
41.6987,958
41.7191,1042
41.7396,1027
41.7601,1136
41.7805,1071
41.801,1012
41.8215,1020
41.8419,1012
41.8624,1062
41.8828,1003
41.9033,989
41.9238,1010
41.9442,1019
41.9647,1064
41.9852,1005
42.0056,1055
42.0261,1055
42.0466,1040
42.067,1065
42.0875,1065
42.1079,1087
42.1284,1036
42.1489,1022
42.1693,1044
42.1898,1004
42.2103,988
42.2307,1020
42.2512,1057
42.2717,1035
42.2921,1059
42.3126,1024
42.3331,1067
42.3535,1021
42.374,1041
42.3944,1082
42.4149,1094
42.4354,1042
42.4558,1134
42.4763,1028
42.4968,1113
42.5172,1040
42.5377,1062
42.5582,1123
42.5786,1117
42.5991,1179
42.6195,1147
42.64,1098
42.6605,1091
42.6809,1247
42.7014,1175
42.7219,1259
42.7423,1248
42.7628,1267
42.7833,1339
42.8037,1366
42.8242,1398
42.8446,1416
42.8651,1484
42.8856,1508
42.906,1538
42.9265,1681
42.947,1630
42.9674,1705
42.9879,1817
43.0084,1903
43.0288,1975
43.0493,2101
43.0698,2096
43.0902,2201
43.1107,2297
43.1311,2472
43.1516,2475
43.1721,2475
43.1925,2596
43.213,2583
43.2335,2666
43.2539,2574
43.2744,2397
43.2949,2347
43.3153,2160
43.3358,2070
43.3562,2058
43.3767,1873
43.3972,1830
43.4176,1689
43.4381,1621
43.4586,1499
43.479,1438
43.4995,1373
43.52,1357
43.5404,1257
43.5609,1273
43.5813,1301
43.6018,1225
43.6223,1177
43.6427,1152
43.6632,1185
43.6837,1138
43.7041,1159
43.7246,1109
43.7451,1054
43.7655,1112
43.786,1060
43.8065,1050
43.8269,1041
43.8474,1086
43.8678,1148
43.8883,1117
43.9088,1123
43.9292,1134
43.9497,1118
43.9702,1131
43.9906,1128
44.0111,1133
44.0316,1087
44.052,1080
44.0725,1049
44.0929,1013
44.1134,1076
44.1339,1042
44.1543,1019
44.1748,1099
44.1953,1056
44.2157,1039
44.2362,1001
44.2567,988
44.2771,1079
44.2976,969
44.318,967
44.3385,1015
44.359,1072
44.3794,1006
44.3999,1003
44.4204,1020
44.4408,1012
44.4613,1061
44.4818,975
44.5022,1015
44.5227,996
44.5432,932
44.5636,933
44.5841,951
44.6045,970
44.625,957
44.6455,902
44.6659,1060
44.6864,957
44.7069,982
44.7273,1017
44.7478,997
44.7683,958
44.7887,940
44.8092,1029
44.8296,1014
44.8501,988
44.8706,1018
44.891,985
44.9115,945
44.932,929
44.9524,914
44.9729,1010
44.9934,935
45.0138,922
45.0343,1013
45.0547,965
45.0752,965
45.0957,991
45.1161,909
45.1366,903
45.1571,1002
45.1775,954
45.198,898
45.2185,974
45.2389,974
45.2594,956
45.2799,976
45.3003,977
45.3208,964
45.3412,894
45.3617,950
45.3822,968
45.4026,944
45.4231,971
45.4436,984
45.464,994
45.4845,946
45.505,897
45.5254,983
45.5459,998
45.5663,909
45.5868,959
45.6073,980
45.6277,883
45.6482,921
45.6687,942
45.6891,958
45.7096,907
45.7301,960
45.7505,951
45.771,966
45.7914,922
45.8119,917
45.8324,932
45.8528,922
45.8733,931
45.8938,971
45.9142,983
45.9347,1012
45.9552,917
45.9756,965
45.9961,949
46.0166,984
46.037,913
46.0575,948
46.0779,920
46.0984,926
46.1189,937
46.1393,959
46.1598,914
46.1803,903
46.2007,963
46.2212,969
46.2417,883
46.2621,914
46.2826,923
46.303,872
46.3235,887
46.344,939
46.3644,934
46.3849,862
46.4054,933
46.4258,973
46.4463,970
46.4668,939
46.4872,901
46.5077,926
46.5281,945
46.5486,942
46.5691,880
46.5895,971
46.61,873
46.6305,978
46.6509,925
46.6714,911
46.6919,925
46.7123,901
46.7328,907
46.7533,925
46.7737,876
46.7942,882
46.8146,946
46.8351,933
46.8556,937
46.876,934
46.8965,983
46.917,912
46.9374,941
46.9579,968
46.9784,920
46.9988,913
47.0193,895
47.0397,936
47.0602,900
47.0807,952
47.1011,935
47.1216,927
47.1421,902
47.1625,881
47.183,894
47.2035,902
47.2239,911
47.2444,910
47.2648,872
47.2853,966
47.3058,950
47.3262,893
47.3467,938
47.3672,858
47.3876,861
47.4081,898
47.4286,907
47.449,943
47.4695,885
47.49,879
47.5104,911
47.5309,892
47.5513,942
47.5718,908
47.5923,866
47.6127,913
47.6332,963
47.6537,906
47.6741,918
47.6946,969
47.7151,893
47.7355,919
47.756,911
47.7764,890
47.7969,883
47.8174,915
47.8378,876
47.8583,902
47.8788,950
47.8992,920
47.9197,886
47.9402,923
47.9606,882
47.9811,861
48.0015,879
48.022,863
48.0425,838
48.0629,886
48.0834,871
48.1039,925
48.1243,912
48.1448,914
48.1653,916
48.1857,888
48.2062,870
48.2267,904
48.2471,888
48.2676,845
48.288,908
48.3085,879
48.329,885
48.3494,897
48.3699,907
48.3904,951
48.4108,908
48.4313,922
48.4518,849
48.4722,891
48.4927,905
48.5131,862
48.5336,923
48.5541,833
48.5745,873
48.595,874
48.6155,909
48.6359,856
48.6564,890
48.6769,887
48.6973,883
48.7178,865
48.7382,942
48.7587,891
48.7792,910
48.7996,860
48.8201,917
48.8406,869
48.861,914
48.8815,878
48.902,913
48.9224,909
48.9429,858
48.9634,874
48.9838,846
49.0043,898
49.0247,900
49.0452,887
49.0657,890
49.0861,926
49.1066,872
49.1271,862
49.1475,931
49.168,925
49.1885,867
49.2089,834
49.2294,894
49.2498,905
49.2703,881
49.2908,898
49.3112,923
49.3317,865
49.3522,874
49.3726,887
49.3931,838
49.4136,938
49.434,903
49.4545,942
49.4749,861
49.4954,889
49.5159,876
49.5363,871
49.5568,890
49.5773,905
49.5977,904
49.6182,829
49.6387,937
49.6591,895
49.6796,954
49.7001,874
49.7205,866
49.741,932
49.7614,877
49.7819,925
49.8024,963
49.8228,903
49.8433,898
49.8638,914
49.8842,939
49.9047,891
49.9252,884
49.9456,903
49.9661,930
49.9865,854
50.007,910
50.0275,875
50.0479,916
50.0684,900
50.0889,913
50.1093,880
50.1298,889
50.1503,902
50.1707,886
50.1912,869
50.2116,897
50.2321,811
50.2526,858
50.273,852
50.2935,880
50.314,855
50.3344,859
50.3549,871
50.3754,908
50.3958,867
50.4163,880
50.4368,851
50.4572,855
50.4777,830
50.4981,857
50.5186,893
50.5391,873
50.5595,865
50.58,871
50.6005,854
50.6209,853
50.6414,860
50.6619,813
50.6823,872
50.7028,909
50.7232,815
50.7437,837
50.7642,846
50.7846,833
50.8051,843
50.8256,861
50.846,804
50.8665,904
50.887,947
50.9074,800
50.9279,919
50.9484,867
50.9688,878
50.9893,842
51.0097,914
51.0302,883
51.0507,880
51.0711,881
51.0916,887
51.1121,853
51.1325,917
51.153,866
51.1735,900
51.1939,865
51.2144,861
51.2348,909
51.2553,831
51.2758,883
51.2962,855
51.3167,818
51.3372,858
51.3576,880
51.3781,812
51.3986,857
51.419,882
51.4395,876
51.4599,846
51.4804,834
51.5009,863
51.5213,864
51.5418,840
51.5623,822
51.5827,896
51.6032,866
51.6237,824
51.6441,898
51.6646,899
51.6851,794
51.7055,867
51.726,880
51.7464,780
51.7669,877
51.7874,835
51.8078,852
51.8283,836
51.8488,858
51.8692,866
51.8897,831
51.9102,802
51.9306,876
51.9511,783
51.9715,835
51.992,889
52.0125,764
52.0329,819
52.0534,884
52.0739,835
52.0943,820
52.1148,860
52.1353,810
52.1557,852
52.1762,835
52.1966,836
52.2171,840
52.2376,797
52.258,887
52.2785,881
52.299,831
52.3194,819
52.3399,835
52.3604,871
52.3808,802
52.4013,829
52.4218,861
52.4422,869
52.4627,861
52.4831,887
52.5036,864
52.5241,831
52.5445,803
52.565,859
52.5855,803
52.6059,834
52.6264,823
52.6469,851
52.6673,806
52.6878,831
52.7082,816
52.7287,853
52.7492,809
52.7696,850
52.7901,812
52.8106,881
52.831,836
52.8515,813
52.872,827
52.8924,830
52.9129,837
52.9333,825
52.9538,813
52.9743,763
52.9947,892
53.0152,770
53.0357,814
53.0561,872
53.0766,843
53.0971,880
53.1175,849
53.138,843
53.1585,835
53.1789,786
53.1994,829
53.2198,843
53.2403,805
53.2608,813
53.2812,786
53.3017,853
53.3222,869
53.3426,906
53.3631,850
53.3836,820
53.404,853
53.4245,857
53.4449,812
53.4654,822
53.4859,756
53.5063,816
53.5268,861
53.5473,872
53.5677,777
53.5882,790
53.6087,844
53.6291,833
53.6496,826
53.67,831
53.6905,815
53.711,814
53.7314,792
53.7519,788
53.7724,823
53.7928,798
53.8133,820
53.8338,810
53.8542,824
53.8747,806
53.8952,861
53.9156,784
53.9361,772
53.9565,784
53.977,867
53.9975,797
54.0179,851
54.0384,854
54.0589,796
54.0793,850
54.0998,831
54.1203,809
54.1407,823
54.1612,796
54.1816,855
54.2021,836
54.2226,808
54.243,799
54.2635,827
54.284,848
54.3044,798
54.3249,819
54.3454,862
54.3658,830
54.3863,827
54.4067,814
54.4272,802
54.4477,832
54.4681,810
54.4886,805
54.5091,812
54.5295,779
54.55,845
54.5705,834
54.5909,760
54.6114,869
54.6319,848
54.6523,841
54.6728,768
54.6932,862
54.7137,838
54.7342,808
54.7546,847
54.7751,820
54.7956,817
54.816,755
54.8365,851
54.857,827
54.8774,787
54.8979,823
54.9183,808
54.9388,858
54.9593,790
54.9797,832
55.0002,771
55.0207,814
55.0411,827
55.0616,852
55.0821,769
55.1025,847
55.123,770
55.1434,819
55.1639,879
55.1844,754
55.2048,836
55.2253,822
55.2458,804
55.2662,819
55.2867,810
55.3072,798
55.3276,854
55.3481,806
55.3686,844
55.389,806
55.4095,848
55.4299,764
55.4504,826
55.4709,816
55.4913,834
55.5118,809
55.5323,820
55.5527,786
55.5732,829
55.5937,806
55.6141,845
55.6346,849
55.655,870
55.6755,804
55.696,826
55.7164,820
55.7369,805
55.7574,822
55.7778,820
55.7983,772
55.8188,769
55.8392,780
55.8597,807
55.8801,779
55.9006,780
55.9211,783
55.9415,828
55.962,773
55.9825,824
56.0029,844
56.0234,793
56.0439,796
56.0643,840
56.0848,789
56.1053,805
56.1257,862
56.1462,778
56.1666,800
56.1871,793
56.2076,798
56.228,786
56.2485,772
56.269,811
56.2894,794
56.3099,770
56.3304,810
56.3508,782
56.3713,801
56.3917,800
56.4122,811
56.4327,805
56.4531,841
56.4736,845
56.4941,836
56.5145,847
56.535,791
56.5555,791
56.5759,835
56.5964,824
56.6168,864
56.6373,823
56.6578,816
56.6782,764
56.6987,794
56.7192,785
56.7396,805
56.7601,805
56.7806,807
56.801,816
56.8215,788
56.842,775
56.8624,765
56.8829,784
56.9033,804
56.9238,811
56.9443,844
56.9647,812
56.9852,832
57.0057,816
57.0261,826
57.0466,778
57.0671,779
57.0875,857
57.108,793
57.1284,768
57.1489,816
57.1694,760
57.1898,820
57.2103,820
57.2308,803
57.2512,790
57.2717,805
57.2922,847
57.3126,815
57.3331,793
57.3535,800
57.374,828
57.3945,799
57.4149,839
57.4354,806
57.4559,835
57.4763,804
57.4968,785
57.5173,824
57.5377,743
57.5582,810
57.5787,794
57.5991,799
57.6196,786
57.64,843
57.6605,876
57.681,840
57.7014,816
57.7219,796
57.7424,821
57.7628,852
57.7833,827
57.8038,760
57.8242,782
57.8447,812
57.8651,791
57.8856,797
57.9061,724
57.9265,802
57.947,801
57.9675,814
57.9879,803
58.0084,813
58.0289,811
58.0493,836
58.0698,825
58.0902,748
58.1107,782
58.1312,759
58.1516,817
58.1721,855
58.1926,800
58.213,876
58.2335,778
58.254,838
58.2744,764
58.2949,827
58.3154,835
58.3358,792
58.3563,819
58.3767,796
58.3972,758
58.4177,776
58.4381,863
58.4586,805
58.4791,759
58.4995,833
58.52,802
58.5405,833
58.5609,804
58.5814,783
58.6018,834
58.6223,772
58.6428,818
58.6632,810
58.6837,816
58.7042,848
58.7246,816
58.7451,814
58.7656,831
58.786,802
58.8065,839
58.8269,805
58.8474,805
58.8679,756
58.8883,841
58.9088,778
58.9293,811
58.9497,832
58.9702,791
58.9907,799
59.0111,755
59.0316,781
59.0521,820
59.0725,829
59.093,789
59.1134,814
59.1339,798
59.1544,792
59.1748,819
59.1953,773
59.2158,832
59.2362,774
59.2567,817
59.2772,776
59.2976,777
59.3181,807
59.3385,757
59.359,809
59.3795,782
59.3999,824
59.4204,772
59.4409,803
59.4613,807
59.4818,821
59.5023,822
59.5227,831
59.5432,821
59.5636,839
59.5841,782
59.6046,808
59.625,826
59.6455,838
59.666,811
59.6864,806
59.7069,811
59.7274,776
59.7478,784
59.7683,758
59.7888,800
59.8092,770
59.8297,813
59.8501,743
59.8706,813
59.8911,774
59.9115,776
59.932,849
59.9525,784
59.9729,817
59.9934,812
60.0139,824
60.0343,797
60.0548,789
60.0752,811
60.0957,807
60.1162,791
60.1366,815
60.1571,734
60.1776,826
60.198,803
60.2185,794
60.239,815
60.2594,824
60.2799,798
60.3003,772
60.3208,772
60.3413,832
60.3617,815
60.3822,842
60.4027,798
60.4231,796
60.4436,764
60.4641,815
60.4845,809
60.505,818
60.5255,798
60.5459,841
60.5664,810
60.5868,778
60.6073,815
60.6278,820
60.6482,794
60.6687,800
60.6892,875
60.7096,826
60.7301,789
60.7506,827
60.771,774
60.7915,824
60.8119,810
60.8324,802
60.8529,829
60.8733,785
60.8938,813
60.9143,768
60.9347,816
60.9552,810
60.9757,798
60.9961,795
61.0166,823
61.037,846
61.0575,808
61.078,794
61.0984,796
61.1189,813
61.1394,799
61.1598,776
61.1803,781
61.2008,815
61.2212,791
61.2417,783
61.2622,800
61.2826,770
61.3031,814
61.3235,813
61.344,847
61.3645,785
61.3849,880
61.4054,781
61.4259,822
61.4463,852
61.4668,856
61.4873,768
61.5077,815
61.5282,824
61.5486,830
61.5691,790
61.5896,807
61.61,814
61.6305,818
61.651,826
61.6714,834
61.6919,758
61.7124,818
61.7328,838
61.7533,820
61.7737,795
61.7942,847
61.8147,842
61.8351,881
61.8556,825
61.8761,806
61.8965,847
61.917,838
61.9375,834
61.9579,834
61.9784,926
61.9989,816
62.0193,850
62.0398,808
62.0602,854
62.0807,901
62.1012,873
62.1216,855
62.1421,849
62.1626,891
62.183,870
62.2035,888
62.224,907
62.2444,793
62.2649,924
62.2853,907
62.3058,931
62.3263,918
62.3467,952
62.3672,933
62.3877,978
62.4081,946
62.4286,992
62.4491,1040
62.4695,1043
62.49,998
62.5104,1045
62.5309,1118
62.5514,1163
62.5718,1218
62.5923,1189
62.6128,1259
62.6332,1250
62.6537,1307
62.6742,1289
62.6946,1332
62.7151,1284
62.7356,1344
62.756,1336
62.7765,1355
62.7969,1293
62.8174,1362
62.8379,1217
62.8583,1299
62.8788,1290
62.8993,1215
62.9197,1185
62.9402,1100
62.9607,1077
62.9811,1077
63.0016,1083
63.022,1019
63.0425,969
63.063,994
63.0834,966
63.1039,940
63.1244,977
63.1448,932
63.1653,880
63.1858,909
63.2062,855
63.2267,886
63.2471,858
63.2676,866
63.2881,928
63.3085,852
63.329,860
63.3495,867
63.3699,832
63.3904,823
63.4109,792
63.4313,895
63.4518,798
63.4723,757
63.4927,826
63.5132,838
63.5336,835
63.5541,829
63.5746,834
63.595,786
63.6155,767
63.636,828
63.6564,767
63.6769,886
63.6974,836
63.7178,801
63.7383,815
63.7587,818
63.7792,797
63.7997,816
63.8201,833
63.8406,794
63.8611,872
63.8815,802
63.902,856
63.9225,829
63.9429,769
63.9634,804
63.9838,772
64.0043,784
64.0248,827
64.0452,784
64.0657,781
64.0862,801
64.1066,754
64.1271,789
64.1476,767
64.168,828
64.1885,762
64.209,823
64.2294,805
64.2499,806
64.2703,789
64.2908,786
64.3113,813
64.3317,823
64.3522,812
64.3727,767
64.3931,754
64.4136,800
64.4341,826
64.4545,801
64.475,790
64.4954,722
64.5159,775
64.5364,778
64.5568,804
64.5773,844
64.5978,790
64.6182,799
64.6387,782
64.6592,760
64.6796,810
64.7001,770
64.7206,765
64.741,786
64.7615,768
64.7819,815
64.8024,801
64.8229,737
64.8433,784
64.8638,758
64.8843,754
64.9047,780
64.9252,762
64.9457,800
64.9661,804
64.9866,794
65.007,794
65.0275,786
65.048,764
65.0684,765
65.0889,719
65.1094,773
65.1298,730
65.1503,749
65.1708,761
65.1912,795
65.2117,774
65.2321,804
65.2526,765
65.2731,786
65.2935,803
65.314,770
65.3345,775
65.3549,798
65.3754,734
65.3959,709
65.4163,767
65.4368,759
65.4573,792
65.4777,797
65.4982,788
65.5186,725
65.5391,766
65.5596,792
65.58,790
65.6005,796
65.621,785
65.6414,771
65.6619,815
65.6824,761
65.7028,754
65.7233,737
65.7437,752
65.7642,731
65.7847,738
65.8051,725
65.8256,771
65.8461,804
65.8665,764
65.887,751
65.9075,748
65.9279,806
65.9484,769
65.9688,727
65.9893,769
66.0098,720
66.0302,746
66.0507,768
66.0712,766
66.0916,778
66.1121,779
66.1326,744
66.153,782
66.1735,722
66.194,748
66.2144,689
66.2349,728
66.2553,799
66.2758,771
66.2963,791
66.3167,754
66.3372,758
66.3577,712
66.3781,779
66.3986,741
66.4191,748
66.4395,714
66.46,759
66.4804,813
66.5009,759
66.5214,753
66.5418,761
66.5623,738
66.5828,732
66.6032,779
66.6237,750
66.6442,767
66.6646,748
66.6851,813
66.7055,792
66.726,801
66.7465,721
66.7669,718
66.7874,775
66.8079,780
66.8283,745
66.8488,764
66.8693,743
66.8897,763
66.9102,714
66.9307,739
66.9511,772
66.9716,753
66.992,724
67.0125,675
67.033,749
67.0534,725
67.0739,737
67.0944,752
67.1148,729
67.1353,700
67.1558,765
67.1762,747
67.1967,758
67.2171,721
67.2376,739
67.2581,740
67.2785,782
67.299,740
67.3195,740
67.3399,785
67.3604,724
67.3809,745
67.4013,744
67.4218,751
67.4422,767
67.4627,698
67.4832,758
67.5036,749
67.5241,695
67.5446,747
67.565,777
67.5855,756
67.606,720
67.6264,707
67.6469,771
67.6674,733
67.6878,787
67.7083,736
67.7287,752
67.7492,747
67.7697,764
67.7901,751
67.8106,740
67.8311,783
67.8515,717
67.872,746
67.8925,767
67.9129,742
67.9334,775
67.9538,787
67.9743,723
67.9948,759
68.0152,701
68.0357,773
68.0562,698
68.0766,720
68.0971,735
68.1176,725
68.138,729
68.1585,694
68.1789,741
68.1994,717
68.2199,773
68.2403,743
68.2608,721
68.2813,706
68.3017,732
68.3222,719
68.3427,710
68.3631,710
68.3836,768
68.4041,752
68.4245,704
68.445,696
68.4654,727
68.4859,730
68.5064,707
68.5268,741
68.5473,698
68.5678,734
68.5882,748
68.6087,715
68.6292,769
68.6496,711
68.6701,747
68.6905,747
68.711,740
68.7315,725
68.7519,727
68.7724,724
68.7929,770
68.8133,739
68.8338,736
68.8543,733
68.8747,742
68.8952,721
68.9156,758
68.9361,730
68.9566,729
68.977,728
68.9975,751
69.018,741
69.0384,696
69.0589,705
69.0794,730
69.0998,712
69.1203,743
69.1408,705
69.1612,728
69.1817,716
69.2021,745
69.2226,753
69.2431,748
69.2635,724
69.284,710
69.3045,748
69.3249,770
69.3454,655
69.3659,759
69.3863,733
69.4068,718
69.4272,734
69.4477,675
69.4682,767
69.4886,720
69.5091,747
69.5296,772
69.55,707
69.5705,702
69.591,767
69.6114,788
69.6319,745
69.6523,654
69.6728,691
69.6933,708
69.7137,720
69.7342,708
69.7547,658
69.7751,711
69.7956,721
69.8161,722
69.8365,745
69.857,733
69.8775,714
69.8979,712
69.9184,668
69.9388,689
69.9593,707
69.9798,707
70.0002,687
70.0207,731
70.0412,711
70.0616,700
70.0821,679
70.1026,696
70.123,684
70.1435,691
70.1639,709
70.1844,657
70.2049,640
70.2253,679
70.2458,681
70.2663,725
70.2867,704
70.3072,710
70.3277,692
70.3481,718
70.3686,698
70.389,680
70.4095,702
70.43,732
70.4504,712
70.4709,702
70.4914,723
70.5118,703
70.5323,693
70.5528,685
70.5732,713
70.5937,668
70.6142,730
70.6346,697
70.6551,693
70.6755,721
70.696,714
70.7165,640
70.7369,666
70.7574,657
70.7779,712
70.7983,686
70.8188,738
70.8393,728
70.8597,679
70.8802,672
70.9006,718
70.9211,674
70.9416,699
70.962,702
70.9825,686
71.003,708
71.0234,724
71.0439,701
71.0644,709
71.0848,728
71.1053,680
71.1257,736
71.1462,695
71.1667,721
71.1871,690
71.2076,677
71.2281,669
71.2485,675
71.269,696
71.2895,714
71.3099,739
71.3304,711
71.3509,688
71.3713,753
71.3918,682
71.4122,707
71.4327,673
71.4532,718
71.4736,717
71.4941,668
71.5146,683
71.535,721
71.5555,677
71.576,662
71.5964,669
71.6169,683
71.6373,723
71.6578,706
71.6783,724
71.6987,670
71.7192,719
71.7397,677
71.7601,709
71.7806,677
71.8011,704
71.8215,698
71.842,683
71.8624,665
71.8829,652
71.9034,687
71.9238,679
71.9443,735
71.9648,664
71.9852,701
72.0057,684
72.0262,646
72.0466,651
72.0671,703
72.0876,633
72.108,664
72.1285,776
72.1489,693
72.1694,656
72.1899,713
72.2103,679
72.2308,686
72.2513,635
72.2717,681
72.2922,681
72.3127,671
72.3331,679
72.3536,696
72.374,706
72.3945,662
72.415,612
72.4354,656
72.4559,730
72.4764,670
72.4968,727
72.5173,659
72.5378,725
72.5582,723
72.5787,682
72.5991,678
72.6196,688
72.6401,676
72.6605,650
72.681,686
72.7015,649
72.7219,698
72.7424,677
72.7629,677
72.7833,713
72.8038,666
72.8243,669
72.8447,716
72.8652,663
72.8856,688
72.9061,642
72.9266,645
72.947,662
72.9675,707
72.988,656
73.0084,628
73.0289,665
73.0494,668
73.0698,687
73.0903,676
73.1107,675
73.1312,652
73.1517,664
73.1721,743
73.1926,678
73.2131,641
73.2335,654
73.254,665
73.2745,667
73.2949,676
73.3154,693
73.3358,685
73.3563,650
73.3768,634
73.3972,696
73.4177,659
73.4382,685
73.4586,664
73.4791,731
73.4996,667
73.52,676
73.5405,680
73.561,688
73.5814,680
73.6019,654
73.6223,651
73.6428,665
73.6633,642
73.6837,660
73.7042,633
73.7247,689
73.7451,628
73.7656,685
73.7861,706
73.8065,709
73.827,628
73.8474,630
73.8679,700
73.8884,628
73.9088,692
73.9293,675
73.9498,661
73.9702,630
73.9907,678
74.0112,674
74.0316,654
74.0521,650
74.0725,657
74.093,652
74.1135,710
74.1339,660
74.1544,708
74.1749,651
74.1953,657
74.2158,708
74.2363,664
74.2567,685
74.2772,672
74.2977,663
74.3181,685
74.3386,670
74.359,670
74.3795,642
74.4,689
74.4204,630
74.4409,698
74.4614,605
74.4818,677
74.5023,649
74.5228,645
74.5432,653
74.5637,676
74.5841,718
74.6046,669
74.6251,681
74.6455,677
74.666,689
74.6865,696
74.7069,660
74.7274,669
74.7479,668
74.7683,690
74.7888,721
74.8092,669
74.8297,699
74.8502,690
74.8706,666
74.8911,686
74.9116,721
74.932,697
74.9525,722
74.973,770
74.9934,784
75.0139,739
75.0344,756
75.0548,722
75.0753,734
75.0957,784
75.1162,721
75.1367,731
75.1571,835
75.1776,769
75.1981,741
75.2185,804
75.239,771
75.2595,769
75.2799,798
75.3004,801
75.3208,806
75.3413,741
75.3618,774
75.3822,718
75.4027,708
75.4232,705
75.4436,762
75.4641,718
75.4846,784
75.505,762
75.5255,720
75.5459,678
75.5664,742
75.5869,722
75.6073,676
75.6278,740
75.6483,689
75.6687,684
75.6892,687
75.7097,712
75.7301,622
75.7506,682
75.7711,638
75.7915,666
75.812,694
75.8324,699
75.8529,672
75.8734,680
75.8938,608
75.9143,663
75.9348,693
75.9552,660
75.9757,653
75.9962,658
76.0166,643
76.0371,615
76.0575,657
76.078,648
76.0985,666
76.1189,682
76.1394,632
76.1599,680
76.1803,625
76.2008,654
76.2213,611
76.2417,647
76.2622,605
76.2826,675
76.3031,618
76.3236,684
76.344,702
76.3645,650
76.385,655
76.4054,630
76.4259,621
76.4464,668
76.4668,624
76.4873,641
76.5078,699
76.5282,636
76.5487,655
76.5691,640
76.5896,659
76.6101,625
76.6305,636
76.651,616
76.6715,609
76.6919,631
76.7124,625
76.7329,633
76.7533,603
76.7738,601
76.7942,632
76.8147,653
76.8352,658
76.8556,592
76.8761,641
76.8966,629
76.917,629
76.9375,649
76.958,664
76.9784,633
76.9989,668
77.0193,669
77.0398,617
77.0603,639
77.0807,608
77.1012,660
77.1217,582
77.1421,621
77.1626,624
77.1831,624
77.2035,614
77.224,610
77.2445,638
77.2649,635
77.2854,606
77.3058,598
77.3263,654
77.3468,596
77.3672,657
77.3877,626
77.4082,651
77.4286,598
77.4491,642
77.4696,610
77.49,619
77.5105,632
77.5309,674
77.5514,669
77.5719,626
77.5923,660
77.6128,625
77.6333,690
77.6537,600
77.6742,620
77.6947,562
77.7151,605
77.7356,633
77.756,620
77.7765,595
77.797,605
77.8174,558
77.8379,595
77.8584,617
77.8788,626
77.8993,643
77.9198,598
77.9402,622
77.9607,573
77.9812,645
78.0016,635
78.0221,623
78.0425,645
78.063,642
78.0835,609
78.1039,573
78.1244,666
78.1449,580
78.1653,632
78.1858,584
78.2063,592
78.2267,657
78.2472,640
78.2676,628
78.2881,642
78.3086,622
78.329,633
78.3495,655
78.37,638
78.3904,613
78.4109,605
78.4314,647
78.4518,618
78.4723,642
78.4928,614
78.5132,616
78.5337,597
78.5541,637
78.5746,608
78.5951,605
78.6155,628
78.636,650
78.6565,621
78.6769,621
78.6974,657
78.7179,650
78.7383,682
78.7588,591
78.7792,621
78.7997,613
78.8202,651
78.8406,607
78.8611,647
78.8816,649
78.902,592
78.9225,616
78.943,647
78.9634,654
78.9839,671
79.0043,661
79.0248,653
79.0453,710
79.0657,678
79.0862,695
79.1067,649
79.1271,675
79.1476,692
79.1681,704
79.1885,707
79.209,730
79.2295,697
79.2499,678
79.2704,659
79.2908,706
79.3113,704
79.3318,676
79.3522,731
79.3727,681
79.3932,722
79.4136,682
79.4341,652
79.4546,650
79.475,653
79.4955,696
79.5159,650
79.5364,656
79.5569,615
79.5773,652
79.5978,637
79.6183,585
79.6387,598
79.6592,590
79.6797,638
79.7001,609
79.7206,643
79.741,640
79.7615,635
79.782,621
79.8024,601
79.8229,643
79.8434,613
79.8638,585
79.8843,567
79.9048,580
79.9252,578
79.9457,590
79.9662,579
79.9866,600
80.0071,590